/*
Flick reference spectrum for downward plane irradiance just above
the ocean surface under a cloud-free sky and and with a US standard
atmosphere. See
flick/Example/accurt_calls/reference_spectrum/make_reference_spectrum.py
for further specifications of solar zenith angle, aerosols, spectral
width, etc.

Column 1: Wavelength [nm]
Column 2: Irradiance [W/m2/nm]
*/

280.00  4.438e-12
282.00  1.452e-10
284.01  2.800e-09
286.01  3.921e-08
288.02  4.546e-07
290.02  3.678e-06
292.02  2.084e-05
294.03  9.868e-05
296.03  3.691e-04
298.04  1.049e-03
300.04  2.513e-03
302.04  5.228e-03
304.05  9.953e-03
306.05  1.713e-02
308.06  2.695e-02
310.06  3.963e-02
312.07  5.521e-02
314.07  7.228e-02
316.07  9.045e-02
318.08  1.110e-01
320.08  1.329e-01
322.09  1.558e-01
324.09  1.798e-01
326.09  2.036e-01
328.10  2.230e-01
330.10  2.380e-01
332.11  2.486e-01
334.11  2.558e-01
336.11  2.597e-01
338.12  2.642e-01
340.12  2.690e-01
342.13  2.737e-01
344.13  2.779e-01
346.13  2.845e-01
348.14  2.908e-01
350.14  2.954e-01
352.15  2.995e-01
354.15  3.034e-01
356.16  3.045e-01
358.16  3.080e-01
360.16  3.173e-01
362.17  3.295e-01
364.17  3.429e-01
366.18  3.550e-01
368.18  3.628e-01
370.18  3.673e-01
372.19  3.684e-01
374.19  3.661e-01
376.20  3.641e-01
378.20  3.620e-01
380.20  3.553e-01
382.21  3.500e-01
384.21  3.490e-01
386.22  3.498e-01
388.22  3.523e-01
390.22  3.627e-01
392.23  3.784e-01
394.23  4.017e-01
396.24  4.352e-01
398.24  4.775e-01
400.25  5.200e-01
402.25  5.570e-01
404.25  5.851e-01
406.26  6.039e-01
408.26  6.161e-01
410.27  6.239e-01
412.27  6.323e-01
414.27  6.391e-01
416.28  6.436e-01
418.28  6.446e-01
420.29  6.431e-01
422.29  6.357e-01
424.29  6.281e-01
426.30  6.213e-01
428.30  6.183e-01
430.31  6.195e-01
432.31  6.321e-01
434.31  6.501e-01
436.32  6.724e-01
438.32  6.941e-01
440.33  7.182e-01
442.33  7.404e-01
444.34  7.599e-01
446.34  7.762e-01
448.34  7.929e-01
450.35  8.058e-01
452.35  8.138e-01
454.36  8.212e-01
456.36  8.284e-01
458.36  8.325e-01
460.37  8.351e-01
462.37  8.366e-01
464.38  8.358e-01
466.38  8.337e-01
468.38  8.326e-01
470.39  8.329e-01
472.39  8.355e-01
474.40  8.393e-01
476.40  8.417e-01
478.40  8.393e-01
480.41  8.334e-01
482.41  8.248e-01
484.42  8.136e-01
486.42  8.042e-01
488.43  8.025e-01
490.43  8.036e-01
492.43  8.048e-01
494.44  8.073e-01
496.44  8.085e-01
498.45  8.057e-01
500.45  8.019e-01
502.45  7.999e-01
504.46  7.989e-01
506.46  7.975e-01
508.47  7.932e-01
510.47  7.865e-01
512.47  7.778e-01
514.48  7.683e-01
516.48  7.611e-01
518.49  7.585e-01
520.49  7.616e-01
522.49  7.681e-01
524.50  7.757e-01
526.50  7.823e-01
528.51  7.895e-01
530.51  7.939e-01
532.52  7.945e-01
534.52  7.942e-01
536.52  7.935e-01
538.53  7.905e-01
540.53  7.873e-01
542.54  7.865e-01
544.54  7.862e-01
546.54  7.858e-01
548.55  7.854e-01
550.55  7.841e-01
552.56  7.811e-01
554.56  7.775e-01
556.56  7.731e-01
558.57  7.688e-01
560.57  7.657e-01
562.58  7.632e-01
564.58  7.615e-01
566.58  7.610e-01
568.59  7.612e-01
570.59  7.609e-01
572.60  7.610e-01
574.60  7.604e-01
576.61  7.586e-01
578.61  7.554e-01
580.61  7.503e-01
582.62  7.427e-01
584.62  7.337e-01
586.63  7.240e-01
588.63  7.149e-01
590.63  7.087e-01
592.64  7.057e-01
594.64  7.047e-01
596.65  7.062e-01
598.65  7.088e-01
600.65  7.108e-01
602.66  7.123e-01
604.66  7.138e-01
606.67  7.139e-01
608.67  7.129e-01
610.67  7.116e-01
612.68  7.105e-01
614.68  7.096e-01
616.69  7.092e-01
618.69  7.098e-01
620.70  7.091e-01
622.70  7.067e-01
624.70  7.031e-01
626.71  6.992e-01
628.71  6.953e-01
630.72  6.937e-01
632.72  6.942e-01
634.72  6.960e-01
636.73  6.979e-01
638.73  6.985e-01
640.74  6.963e-01
642.74  6.923e-01
644.74  6.868e-01
646.75  6.802e-01
648.75  6.728e-01
650.76  6.674e-01
652.76  6.634e-01
654.76  6.610e-01
656.77  6.614e-01
658.77  6.668e-01
660.78  6.728e-01
662.78  6.786e-01
664.79  6.839e-01
666.79  6.878e-01
668.79  6.885e-01
670.80  6.878e-01
672.80  6.864e-01
674.81  6.845e-01
676.81  6.816e-01
678.81  6.718e-01
680.82  6.549e-01
682.82  6.332e-01
684.83  6.082e-01
686.83  5.815e-01
688.83  5.670e-01
690.84  5.651e-01
692.84  5.709e-01
694.85  5.814e-01
696.85  5.955e-01
698.85  6.045e-01
700.86  6.088e-01
702.86  6.116e-01
704.87  6.140e-01
706.87  6.148e-01
708.88  6.109e-01
710.88  5.982e-01
712.88  5.787e-01
714.89  5.543e-01
716.89  5.247e-01
718.90  4.985e-01
720.90  4.835e-01
722.90  4.750e-01
724.91  4.723e-01
726.91  4.801e-01
728.92  4.937e-01
730.92  5.089e-01
732.92  5.267e-01
734.93  5.446e-01
736.93  5.582e-01
738.94  5.678e-01
740.94  5.738e-01
742.94  5.771e-01
744.95  5.792e-01
746.95  5.810e-01
748.96  5.824e-01
750.96  5.762e-01
752.97  5.501e-01
754.97  5.068e-01
756.97  4.491e-01
758.98  3.839e-01
760.98  3.301e-01
762.99  3.125e-01
764.99  3.267e-01
766.99  3.667e-01
769.00  4.195e-01
771.00  4.692e-01
773.01  5.027e-01
775.01  5.222e-01
777.01  5.310e-01
779.02  5.349e-01
781.02  5.375e-01
783.03  5.386e-01
785.03  5.383e-01
787.03  5.363e-01
789.04  5.329e-01
791.04  5.292e-01
793.05  5.261e-01
795.05  5.234e-01
797.06  5.215e-01
799.06  5.203e-01
801.06  5.186e-01
803.07  5.152e-01
805.07  5.085e-01
807.08  4.961e-01
809.08  4.773e-01
811.08  4.548e-01
813.09  4.316e-01
815.09  4.082e-01
817.10  3.927e-01
819.10  3.866e-01
821.10  3.861e-01
823.11  3.879e-01
825.11  3.964e-01
827.12  4.041e-01
829.12  4.107e-01
831.12  4.193e-01
833.13  4.309e-01
835.13  4.416e-01
837.14  4.525e-01
839.14  4.624e-01
841.15  4.690e-01
843.15  4.723e-01
845.15  4.718e-01
847.16  4.679e-01
849.16  4.631e-01
851.17  4.591e-01
853.17  4.561e-01
855.17  4.556e-01
857.18  4.580e-01
859.18  4.592e-01
861.19  4.596e-01
863.19  4.592e-01
865.19  4.573e-01
867.20  4.547e-01
869.20  4.541e-01
871.21  4.539e-01
873.21  4.535e-01
875.21  4.531e-01
877.22  4.524e-01
879.22  4.504e-01
881.23  4.482e-01
883.23  4.460e-01
885.24  4.421e-01
887.24  4.346e-01
889.24  4.217e-01
891.25  4.017e-01
893.25  3.758e-01
895.26  3.489e-01
897.26  3.261e-01
899.26  3.091e-01
901.27  3.000e-01
903.27  2.979e-01
905.28  2.962e-01
907.28  2.905e-01
909.28  2.841e-01
911.29  2.787e-01
913.29  2.746e-01
915.30  2.751e-01
917.30  2.815e-01
919.30  2.891e-01
921.31  2.903e-01
923.31  2.809e-01
925.32  2.589e-01
927.32  2.245e-01
929.33  1.812e-01
931.33  1.406e-01
933.33  1.101e-01
935.34  9.188e-02
937.34  8.541e-02
939.35  8.880e-02
941.35  9.360e-02
943.35  9.647e-02
945.36  9.814e-02
947.36  9.946e-02
949.37  1.007e-01
951.37  1.037e-01
953.37  1.091e-01
955.38  1.162e-01
957.38  1.251e-01
959.39  1.371e-01
961.39  1.542e-01
963.39  1.754e-01
965.40  1.979e-01
967.40  2.199e-01
969.41  2.390e-01
971.41  2.515e-01
973.42  2.588e-01
975.42  2.648e-01
977.42  2.720e-01
979.43  2.813e-01
981.43  2.939e-01
983.44  3.081e-01
985.44  3.215e-01
987.44  3.321e-01
989.45  3.400e-01
991.45  3.451e-01
993.46  3.481e-01
995.46  3.493e-01
997.46  3.490e-01
999.47  3.480e-01
1001.47  3.465e-01
1003.48  3.448e-01
1005.48  3.435e-01
1007.48  3.430e-01
1009.49  3.426e-01
1011.49  3.421e-01
1013.50  3.415e-01
1015.50  3.407e-01
1017.51  3.396e-01
1019.51  3.385e-01
1021.51  3.376e-01
1023.52  3.368e-01
1025.52  3.359e-01
1027.53  3.349e-01
1029.53  3.336e-01
1031.53  3.322e-01
1033.54  3.307e-01
1035.54  3.293e-01
1037.55  3.280e-01
1039.55  3.267e-01
