/* Sentinel-3A 
Column 1: OLCI Band wavelength centre [nm]

Column 2: OLCI Top-of-atmosphere radiance [mW m-2 sr-1 nm-1]

*/

400	   77.6
412.5	   83.43
442.5	   85.15
490	   84.16
510	   81.88
560	   73.42
620	   31.79
665	   22.47
673.8	   21.01
681.3	   20.07
708.8	   13.94
753.8	   7.74
761.3	   2.819
764.4	   4.378
767.5	   6.759
778.8	   6.655
865	   4.028
885	   3.597
900	   2.62
940	   1.234
1020	   2.557
