/* Hardangerfjord Water Sample.
    
Interpolated CDOM absorption from 100 cm LWCC (World Precision 
Instruments, Inc., LWCC-3100) measurements recorded using a 
spectrometer (Ocean Optics, USB-2000).
Water samples were filtered through Whatman polycarbonate membrane 
filters (diameter 47 mm, pore size 0.22 um), then injected through 
a 0.2 um pore size syringe filter.
  
  
  Column 1: Wavelength [nm]
  Column 2: Absorption coefficient [m-1]
  */
200  0.3665
201  0.3323
202  0.3073
203  0.3024
204  0.3176
205  0.3389
206  0.3634
207  0.3877
208  0.401
209  0.4188
210  0.4742
211  0.5762
212  0.7017
213  0.834
214  0.9672
215  1.098
216  1.237
217  1.394
218  1.583
219  1.796
220  2.01
221  2.211
222  2.406
223  2.612
224  2.831
225  3.066
226  3.316
227  3.554
228  3.748
229  3.898
230  4.014
231  4.1
232  4.162
233  4.206
234  4.231
235  4.234
236  4.221
237  4.199
238  4.186
239  4.183
240  4.177
241  4.17
242  4.181
243  4.205
244  4.22
245  4.224
246  4.213
247  4.178
248  4.132
249  4.092
250  4.057
251  4.012
252  3.951
253  3.88
254  3.82
255  3.787
256  3.777
257  3.778
258  3.778
259  3.767
260  3.743
261  3.708
262  3.666
263  3.621
264  3.574
265  3.523
266  3.47
267  3.416
268  3.363
269  3.314
270  3.268
271  3.222
272  3.171
273  3.117
274  3.062
275  3.008
276  2.955
277  2.901
278  2.846
279  2.79
280  2.733
281  2.676
282  2.62
283  2.564
284  2.508
285  2.451
286  2.397
287  2.345
288  2.295
289  2.247
290  2.198
291  2.15
292  2.102
293  2.054
294  2.008
295  1.963
296  1.919
297  1.876
298  1.836
299  1.797
300  1.76
301  1.724
302  1.689
303  1.656
304  1.624
305  1.593
306  1.563
307  1.535
308  1.507
309  1.479
310  1.453
311  1.428
312  1.403
313  1.378
314  1.353
315  1.328
316  1.305
317  1.282
318  1.259
319  1.236
320  1.214
321  1.192
322  1.171
323  1.151
324  1.131
325  1.111
326  1.091
327  1.072
328  1.053
329  1.034
330  1.015
331  0.9961
332  0.9772
333  0.9586
334  0.9403
335  0.9227
336  0.9056
337  0.889
338  0.8729
339  0.8575
340  0.8424
341  0.8276
342  0.8129
343  0.7982
344  0.7835
345  0.7689
346  0.7545
347  0.7405
348  0.7268
349  0.7135
350  0.7006
351  0.6882
352  0.6761
353  0.6644
354  0.6529
355  0.6416
356  0.6306
357  0.6198
358  0.6092
359  0.5988
360  0.5885
361  0.5786
362  0.5689
363  0.5595
364  0.5502
365  0.541
366  0.532
367  0.5232
368  0.5149
369  0.5068
370  0.4988
371  0.4908
372  0.4829
373  0.4751
374  0.4674
375  0.4598
376  0.4522
377  0.4448
378  0.4375
379  0.4304
380  0.4235
381  0.4165
382  0.4095
383  0.4027
384  0.3961
385  0.3897
386  0.3833
387  0.377
388  0.3709
389  0.3649
390  0.3591
391  0.3534
392  0.3477
393  0.342
394  0.3365
395  0.331
396  0.3257
397  0.3206
398  0.3156
399  0.3108
400  0.3062
401  0.3018
402  0.2974
403  0.2931
404  0.2888
405  0.2845
406  0.2803
407  0.2761
408  0.2719
409  0.2678
410  0.2637
411  0.2596
412  0.2556
413  0.2516
414  0.2476
415  0.2437
416  0.2399
417  0.2361
418  0.2324
419  0.2288
420  0.2252
421  0.2217
422  0.2183
423  0.2151
424  0.2119
425  0.2087
426  0.2054
427  0.2021
428  0.1987
429  0.1955
430  0.1924
431  0.1893
432  0.1862
433  0.1832
434  0.1802
435  0.1772
436  0.1744
437  0.1716
438  0.1688
439  0.1659
440  0.1631
441  0.1603
442  0.1575
443  0.1548
444  0.1521
445  0.1495
446  0.1468
447  0.1442
448  0.1418
449  0.1394
450  0.1373
451  0.1354
452  0.1336
453  0.1317
454  0.1298
455  0.1278
456  0.1257
457  0.1237
458  0.1217
459  0.1197
460  0.1175
461  0.1154
462  0.1134
463  0.1117
464  0.1101
465  0.1086
466  0.107
467  0.1055
468  0.1039
469  0.1024
470  0.1009
471  0.09941
472  0.09788
473  0.09634
474  0.09477
475  0.09322
476  0.09173
477  0.09038
478  0.08913
479  0.08791
480  0.08661
481  0.08513
482  0.08354
483  0.08195
484  0.08041
485  0.07894
486  0.07756
487  0.07628
488  0.07514
489  0.07417
490  0.07333
491  0.07262
492  0.07201
493  0.07138
494  0.07068
495  0.06996
496  0.06918
497  0.06828
498  0.06735
499  0.06636
500  0.06536
501  0.0644
502  0.06344
503  0.06246
504  0.06151
505  0.0607
506  0.06001
507  0.05938
508  0.05869
509  0.05791
510  0.0571
511  0.05627
512  0.05544
513  0.05464
514  0.05378
515  0.05288
516  0.05209
517  0.05147
518  0.05096
519  0.05047
520  0.05004
521  0.04965
522  0.04924
523  0.04872
524  0.04813
525  0.04751
526  0.04683
527  0.04611
528  0.04536
529  0.04461
530  0.04394
531  0.04336
532  0.04286
533  0.04236
534  0.04183
535  0.04129
536  0.04086
537  0.04052
538  0.04015
539  0.03967
540  0.03918
541  0.03878
542  0.03848
543  0.03814
544  0.03769
545  0.03716
546  0.03662
547  0.03615
548  0.03574
549  0.03534
550  0.0349
551  0.03449
552  0.03415
553  0.03384
554  0.03353
555  0.03319
556  0.03285
557  0.03249
558  0.03209
559  0.03171
560  0.0313
561  0.03086
562  0.0304
563  0.02997
564  0.02955
565  0.02915
566  0.02874
567  0.02834
568  0.02799
569  0.02766
570  0.02736
571  0.02705
572  0.02674
573  0.02644
574  0.02611
575  0.02569
576  0.02521
577  0.02471
578  0.02426
579  0.02388
580  0.0235
581  0.02308
582  0.02268
583  0.02238
584  0.02214
585  0.02189
586  0.02165
587  0.02153
588  0.02149
589  0.02141
590  0.02122
591  0.02098
592  0.02073
593  0.02046
594  0.0201
595  0.01967
596  0.01925
597  0.01898
598  0.01885
599  0.01878
600  0.01871
601  0.01865
602  0.01861
603  0.01857
604  0.01851
605  0.01835
606  0.01814
607  0.01792
608  0.01771
609  0.01755
610  0.01749
611  0.01754
612  0.0176
613  0.01762
614  0.01762
615  0.01762
616  0.01759
617  0.01747
618  0.01719
619  0.01675
620  0.01622
621  0.01573
622  0.01533
623  0.01495
624  0.01459
625  0.01424
626  0.01387
627  0.0136
628  0.01346
629  0.01335
630  0.0132
631  0.013
632  0.01279
633  0.01275
634  0.01287
635  0.01302
636  0.01309
637  0.01308
638  0.01318
639  0.01336
640  0.01346
641  0.01344
642  0.01325
643  0.0129
644  0.01256
645  0.01233
646  0.01212
647  0.01187
648  0.01161
649  0.01141
650  0.01125
651  0.01096
652  0.01053
653  0.009988
654  0.00946
655  0.009125
656  0.008989
657  0.008935
658  0.008899
659  0.008907
660  0.009026
661  0.009201
662  0.009308
663  0.009302
664  0.009239
665  0.009276
666  0.009448
667  0.009636
668  0.009814
669  0.01003
670  0.01022
671  0.01035
672  0.01038
673  0.01031
674  0.01008
675  0.009804
676  0.009614
677  0.009489
678  0.009372
679  0.0093
680  0.009265
681  0.009163
682  0.008978
683  0.008759
684  0.008517
685  0.008191
686  0.007875
687  0.007658
688  0.007404
689  0.007118
690  0.006827
691  0.006572
692  0.006354
693  0.006038
694  0.005535
695  0.004941
696  0.004378
697  0.003843
698  0.003391
699  0.002962
700  0.002575
701  0.002325
702  0.002208
703  0.002203
704  0.002261
705  0.002489
706  0.002837
707  0.003004
708  0.00276
709  0.002328
710  0.001936
711  0.00171
712  0.001803
713  0.002092
714  0.002455
715  0.002902
716  0.00346
717  0.003892
718  0.004096
719  0.004156
720  0.004097
721  0.004062
722  0.00407
723  0.004144
724  0.004225
725  0.004284
726  0.004371
727  0.004333
728  0.004013
729  0.003371
730  0.002522
731  0.001836
732  0.001528
733  0.001449
734  0.001275
735  0.001013
736  0.0008408
737  0.001016
738  0.002156
739  0.00432
740  0.00701
741  0.01009
742  0.01313
743  0.01537
744  0.01637
745  0.01597
746  0.01466
747  0.01265
748  0.0102
749  0.008307
750  0.007351
751  0.007721
752  0.009547
753  0.0111
754  0.01148
755  0.01087
756  0.009479
757  0.00772
758  0.005829
759  0.003899
760  0.001781
761  -0.0006412
762  -0.002233
763  -0.002255
764  -0.001734
765  -0.001458
766  -0.001297
767  -0.0008555
768  0.0005195
769  0.002507
770  0.003294
771  0.002963
772  0.002363
773  0.002048
774  0.002025
775  0.001208
776  -0.001317
777  -0.004606
778  -0.007904
779  -0.01036
780  -0.01181
781  -0.01249
782  -0.01236
783  -0.012
784  -0.01106
785  -0.009797
786  -0.009115
787  -0.009155
788  -0.008946
789  -0.008311
790  -0.007122
791  -0.004881
792  -0.001977
793  0.000413
794  0.001759
795  0.001935
796  0.0009944
797  -0.0004232
798  -0.001816
799  -0.002854
800  -0.003878
