/*
  Top-of atmosphere radiance in  Sentinel-3A  3x3 pixel matchup window.
  
  Column 1: OLCI Band wavelength centre [nm]
  Column 2: Geometric mean OLCI Top-of-atmosphere radiance [mW m-2 sr-1 nm-1]
  Column 3: Geometric standard deviation of OLCI Top-of-atmosphere radiance
  Column 4: OLCI Top-of-atmosphere radiance at center pixel (5) [mW m-2 sr-1 nm-1]
  Column 5-12: OLCI Top-of-atmosphere radiance (pixels 1-4, 6-9) [mW m-2 sr-1 nm-1]
 
  
  */
  
 400.0  77.670  1.003  77.600  77.860  77.880  77.650  77.960  77.490  77.810  77.710  77.080
 412.0  83.320  1.002  83.430  83.310  83.590  83.320  83.550  83.110  83.320  83.190  83.030
 443.0  85.140  1.004  85.150  85.410  85.610  85.100  85.160  85.060  85.440  84.640  84.710
 490.0  84.190  1.004  84.160  84.420  84.570  84.090  84.060  84.260  84.640  83.920  83.620
 510.0  81.790  1.004  81.880  81.810  82.190  81.720  81.510  81.600  82.190  81.960  81.260
 560.0  73.590  1.004  73.420  73.930  73.960  73.700  73.740  73.270  73.860  73.420  73.010
 620.0  31.720  1.010  31.790  32.270  31.890  31.830  32.050  31.360  31.790  31.340  31.210
 665.0  22.460  1.014  22.470  23.010  22.640  22.330  22.780  22.160  22.590  22.150  22.040
 674.0  20.960  1.017  21.010  21.620  21.030  20.890  21.310  20.540  21.200  20.570  20.530
 681.0  20.070  1.017  20.070  20.650  20.280  20.020  20.360  19.650  20.270  19.780  19.590
 709.0  13.910  1.022  13.940  14.440  14.000  13.790  14.250  13.650  14.100  13.580  13.430
 754.0   7.613  1.038   7.740   8.107   7.718   7.560   7.862   7.300   7.776   7.293   7.207
 762.0   2.824  1.028   2.819   2.886   2.871   2.834   2.924   2.811   2.879   2.744   2.654
 765.0   4.281  1.031   4.378   4.464   4.378   4.213   4.395   4.187   4.317   4.179   4.040
 768.0   6.604  1.036   6.759   7.054   6.601   6.527   6.774   6.374   6.743   6.337   6.306
 779.0   6.610  1.037   6.655   7.005   6.692   6.533   6.899   6.342   6.750   6.406   6.247
 865.0   3.987  1.057   4.028   4.383   4.097   3.890   4.225   3.786   4.107   3.757   3.663
 884.0   3.563  1.059   3.597   3.938   3.613   3.531   3.789   3.322   3.668   3.410   3.256
 899.0   2.641  1.061   2.620   2.922   2.710   2.615   2.806   2.479   2.756   2.464   2.439
 939.0   1.230  1.050   1.234   1.328   1.266   1.188   1.292   1.126   1.266   1.211   1.172
1013.0   2.556  1.091   2.557   2.907   2.693   2.525   2.784   2.149   2.687   2.363   2.428
